Lake Shore Cryotronics Inc. FORC Data File (Version 1.0.15.0)

Units of measure	cgs

Averaging time		100.000E-3
Hb1       		-1.33333E3
Hb2       		1.00000E3
Hc2       		1.33333E3
HCal      		2.33333E3
HSat      		3.00000E3
NForc     		50        
PauseCal  		0.00000
PauseRvrsl		1.00000
PauseSat  		1.00000
SlewRate  		10.0000E3
Smoothing 		1         

Field			Moment
(Oe)			(emu)
1.00000		1.00000

998.557		4.16954E-3

1.00000		1.00000

924.808		4.11268E-3
925.112		4.11282E-3
938.134		4.26389E-3
971.895		4.09753E-3

1.00000		1.00000

849.153		4.12290E-3
850.387		4.06191E-3
866.748		3.70350E-3
904.162		3.74140E-3
950.780		4.16523E-3
1.00456E3		4.37770E-3

1.00000		1.00000

774.984		4.00336E-3
775.565		4.01138E-3
792.080		3.72439E-3
832.092		3.43071E-3
882.594		3.62329E-3
939.312		4.20278E-3
1.00127E3		4.47352E-3
1.06213E3		4.47593E-3

1.00000		1.00000

699.720		3.94627E-3
700.832		3.94089E-3
705.849		3.83285E-3
737.387		4.38409E-3
784.713		3.84305E-3
841.281		3.64148E-3
903.046		4.04067E-3
962.773		4.37289E-3
1.03135E3		4.67815E-3
1.10147E3		4.90609E-3

1.00000		1.00000

625.003		3.88462E-3
625.914		3.90196E-3
644.042		3.92411E-3
686.475		4.52129E-3
740.609		4.18380E-3
800.765		3.61409E-3
866.038		3.57812E-3
930.046		3.53429E-3
998.484		3.67113E-3
1.06914E3		4.50958E-3
1.14026E3		4.84746E-3
1.22104E3		4.72833E-3

1.00000		1.00000

549.982		3.80735E-3
550.939		3.82320E-3
568.620		3.90578E-3
613.682		3.65984E-3
668.382		3.86002E-3
729.463		4.29744E-3
795.584		4.35146E-3
860.353		4.51540E-3
929.964		4.34737E-3
1.00138E3		3.64775E-3
1.07192E3		4.56964E-3
1.15776E3		5.20317E-3
1.22160E3		4.70294E-3
1.28752E3		4.84571E-3

1.00000		1.00000

474.625		3.76536E-3
476.189		3.74598E-3
492.488		4.23321E-3
535.605		3.64027E-3
592.070		3.82398E-3
655.173		3.90253E-3
734.814		3.46497E-3
797.060		3.89461E-3
864.212		3.57411E-3
935.073		3.62280E-3
1.00661E3		4.47259E-3
1.07874E3		3.91619E-3
1.14599E3		3.55559E-3
1.21753E3		3.77727E-3
1.28946E3		3.67497E-3
1.36106E3		3.86192E-3

1.00000		1.00000

399.230		3.64090E-3
401.330		3.63039E-3
404.932		3.70940E-3
442.835		3.51110E-3
492.838		3.88370E-3
551.819		4.03816E-3
616.523		3.99862E-3
683.398		3.88014E-3
750.159		3.21215E-3
823.109		3.19424E-3
893.877		3.65468E-3
966.992		2.95894E-3
1.05280E3		3.54104E-3
1.12139E3		4.26822E-3
1.19016E3		4.00528E-3
1.26088E3		3.81641E-3
1.33114E3		4.02661E-3
1.40074E3		4.32291E-3

1.00000		1.00000

323.885		3.58604E-3
326.542		3.57562E-3
327.139		3.57713E-3
366.810		4.10579E-3
418.292		3.71071E-3
477.836		3.46978E-3
543.097		3.82332E-3
610.790		4.15174E-3
677.969		4.69367E-3
751.142		4.60625E-3
825.100		3.69379E-3
898.914		3.32998E-3
981.495		4.05375E-3
1.04977E3		3.33891E-3
1.12022E3		4.31054E-3
1.19096E3		4.70559E-3
1.25948E3		4.71084E-3
1.33225E3		4.25918E-3
1.39996E3		3.45573E-3
1.47423E3		3.62358E-3

1.00000		1.00000

251.034		3.54319E-3
251.801		3.50580E-3
257.572		3.36497E-3
293.210		3.13046E-3
343.368		3.64838E-3
403.404		3.85812E-3
469.494		3.89095E-3
535.939		4.05621E-3
606.468		3.91334E-3
680.742		3.58460E-3
754.347		3.42979E-3
839.372		3.80571E-3
906.657		4.09849E-3
975.964		4.62944E-3
1.04746E3		4.25715E-3
1.12008E3		3.86068E-3
1.19224E3		3.68473E-3
1.26033E3		3.83498E-3
1.33069E3		4.51978E-3
1.40476E3		4.86455E-3
1.47770E3		4.57832E-3
1.56330E3		4.30889E-3

1.00000		1.00000

176.309		3.35888E-3
179.687		3.46128E-3
213.616		3.56445E-3
266.875		3.57936E-3
327.289		3.95257E-3
394.130		4.10050E-3
474.079		3.60182E-3
540.138		3.70154E-3
600.740		3.22862E-3
676.924		3.05143E-3
761.957		3.33393E-3
834.454		3.89151E-3
902.197		4.29842E-3
975.244		4.47823E-3
1.04773E3		3.75277E-3
1.12084E3		3.52934E-3
1.20178E3		4.13211E-3
1.26949E3		3.66139E-3
1.33948E3		4.52558E-3
1.40989E3		4.87602E-3
1.48215E3		4.64194E-3
1.55377E3		4.20935E-3
1.62121E3		3.45022E-3
1.69463E3		3.93738E-3

1.00000		1.00000

101.687		3.33960E-3
101.728		3.29944E-3
102.608		3.31466E-3
122.799		3.55295E-3
167.351		3.12088E-3
223.475		3.18235E-3
286.861		3.70985E-3
348.784		3.04411E-3
421.221		3.31464E-3
496.857		3.58945E-3
571.245		3.04320E-3
645.962		3.06519E-3
729.988		3.69477E-3
797.292		3.97450E-3
868.281		4.60467E-3
938.134		3.70101E-3
1.01205E3		3.40281E-3
1.08541E3		3.42234E-3
1.15463E3		3.35055E-3
1.22799E3		3.74371E-3
1.30110E3		4.63838E-3
1.37449E3		4.91023E-3
1.45646E3		5.00721E-3
1.52417E3		5.01884E-3
1.59256E3		4.91699E-3
1.66544E3		4.79557E-3

1.00000		1.00000

25.7729		3.17018E-3
27.2864		3.16440E-3
32.4088		2.99083E-3
65.7328		3.10545E-3
116.750		2.78732E-3
178.358		2.77424E-3
258.684		3.34577E-3
322.804		3.14977E-3
391.526		3.74065E-3
464.769		4.12546E-3
538.116		3.95442E-3
612.041		3.45929E-3
680.794		3.25911E-3
753.967		3.15700E-3
826.247		4.18039E-3
899.645		4.61298E-3
987.571		4.11734E-3
1.05448E3		4.02901E-3
1.12218E3		4.68516E-3
1.19501E3		4.96466E-3
1.27531E3		4.67610E-3
1.35436E3		3.93003E-3
1.40464E3		4.72203E-3
1.47999E3		4.33771E-3
1.55555E3		4.42359E-3
1.62950E3		4.71756E-3
1.70204E3		4.95310E-3
1.78021E3		3.98381E-3

1.00000		1.00000

-48.5778		3.04505E-3
-47.5275		3.10168E-3
-26.8813		2.95177E-3
18.1000		2.71340E-3
74.0934		2.90345E-3
138.110		2.96574E-3
207.947		3.17453E-3
275.720		3.03559E-3
348.826		3.52379E-3
423.706		4.00321E-3
496.826		3.54699E-3
584.356		4.04857E-3
653.413		3.94096E-3
723.164		3.96422E-3
796.129		4.24997E-3
868.878		4.50224E-3
942.121		4.33542E-3
1.00863E3		4.32362E-3
1.08280E3		3.98650E-3
1.15738E3		4.03241E-3
1.23134E3		3.78355E-3
1.30555E3		4.46507E-3
1.38883E3		4.47395E-3
1.45143E3		4.40866E-3
1.52369E3		4.30994E-3
1.59643E3		4.50628E-3
1.66913E3		4.65599E-3
1.73973E3		4.73814E-3
1.80947E3		5.04770E-3
1.88215E3		4.80882E-3

1.00000		1.00000

-123.771		3.09444E-3
-122.474		2.96300E-3
-103.557		3.10145E-3
-57.9381		3.32417E-3
-1.42916		3.42400E-3
62.8447		3.37258E-3
132.642		2.82166E-3
202.310		3.35972E-3
274.772		2.85189E-3
350.422		2.97162E-3
424.643		3.38729E-3
512.660		3.95720E-3
580.852		3.91617E-3
650.284		3.64597E-3
722.696		3.23266E-3
796.181		3.37506E-3
882.749		4.36986E-3
947.318		4.29108E-3
1.01607E3		4.40725E-3
1.08871E3		4.24487E-3
1.16200E3		3.75247E-3
1.23727E3		4.03821E-3
1.30666E3		4.32292E-3
1.37635E3		5.07250E-3
1.44931E3		4.45160E-3
1.52387E3		4.01756E-3
1.59721E3		4.06315E-3
1.67567E3		4.75309E-3
1.74348E3		5.07153E-3
1.81533E3		5.06471E-3
1.88751E3		4.75744E-3
1.95833E3		4.63113E-3

1.00000		1.00000

-197.912		2.81932E-3
-195.430		2.83146E-3
-159.590		2.48678E-3
-105.935		2.40448E-3
-43.9749		2.55929E-3
22.6610		2.59273E-3
104.163		2.73365E-3
171.156		2.83634E-3
244.089		3.26409E-3
318.747		3.86681E-3
392.952		3.26700E-3
464.918		2.72656E-3
536.109		2.61226E-3
610.080		3.09014E-3
685.044		3.71096E-3
758.751		4.30601E-3
842.660		4.22738E-3
908.082		3.76923E-3
979.699		3.62656E-3
1.05059E3		4.20724E-3
1.12595E3		4.36999E-3
1.19778E3		4.78726E-3
1.26738E3		4.95600E-3
1.33977E3		4.20309E-3
1.41487E3		3.78905E-3
1.48883E3		4.25663E-3
1.57322E3		4.72143E-3
1.63844E3		5.26558E-3
1.70853E3		5.33300E-3
1.78058E3		4.92338E-3
1.85419E3		4.59113E-3
1.92522E3		4.22781E-3
1.99247E3		5.37223E-3
2.06693E3		5.91760E-3

1.00000		1.00000

-274.066		2.71498E-3
-272.171		2.63718E-3
-272.027		2.65061E-3
-252.836		2.40011E-3
-210.599		2.84417E-3
-153.253		2.98389E-3
-88.4290		2.53007E-3
-13.9112		3.50950E-3
56.6927		3.31944E-3
130.531		3.25120E-3
205.069		3.89062E-3
279.499		4.04230E-3
352.929		3.60491E-3
424.977		3.33630E-3
499.085		2.77688E-3
572.547		3.85768E-3
647.943		4.92649E-3
732.463		4.74611E-3
801.048		4.61828E-3
871.986		4.30886E-3
944.246		3.57535E-3
1.01557E3		4.52758E-3
1.08891E3		4.95648E-3
1.15803E3		4.15901E-3
1.23261E3		4.64745E-3
1.30549E3		3.89801E-3
1.38015E3		3.56364E-3
1.46701E3		4.07022E-3
1.53356E3		4.23672E-3
1.60197E3		4.53502E-3
1.67331E3		4.98455E-3
1.74420E3		4.50836E-3
1.81857E3		4.05694E-3
1.88855E3		4.23592E-3
1.96924E3		5.06805E-3
2.04269E3		4.78448E-3

1.00000		1.00000

-349.855		2.51324E-3
-346.961		2.46304E-3
-341.935		2.36257E-3
-308.515		2.86632E-3
-257.505		2.36574E-3
-195.749		2.33234E-3
-128.418		2.97249E-3
-50.9153		2.53423E-3
19.8110		3.17465E-3
94.2275		3.51108E-3
168.633		2.81915E-3
243.271		2.51561E-3
309.917		3.04467E-3
385.541		3.53767E-3
460.004		2.94430E-3
537.303		3.13495E-3
612.452		2.89553E-3
693.535		3.84077E-3
764.401		3.34143E-3
836.717		3.27772E-3
908.648		3.94846E-3
978.871		3.63394E-3
1.05212E3		3.26845E-3
1.11907E3		4.08532E-3
1.19461E3		4.52869E-3
1.27091E3		4.63728E-3
1.34479E3		4.76193E-3
1.42944E3		4.49760E-3
1.49515E3		4.39336E-3
1.56616E3		4.28948E-3
1.63766E3		3.81567E-3
1.71046E3		3.19462E-3
1.78326E3		4.45195E-3
1.86216E3		4.76857E-3
1.93193E3		4.39702E-3
2.00387E3		4.25439E-3
2.07605E3		4.14572E-3
2.14726E3		4.38806E-3

1.00000		1.00000

-422.220		2.39788E-3
-421.788		2.21903E-3
-420.841		2.19949E-3
-384.250		2.51857E-3
-331.533		2.43912E-3
-270.461		2.03618E-3
-202.330		2.05128E-3
-126.883		2.17825E-3
-55.0343		2.59621E-3
18.1000		3.12088E-3
93.4656		3.22290E-3
165.673		3.80771E-3
241.144		3.34512E-3
312.512		2.76191E-3
388.114		2.88632E-3
459.690		2.57710E-3
537.138		3.00258E-3
624.478		2.88394E-3
691.245		3.50571E-3
759.950		3.28571E-3
832.679		3.45153E-3
903.478		3.58650E-3
979.103		3.85726E-3
1.04846E3		4.13854E-3
1.11902E3		3.44714E-3
1.19322E3		3.01577E-3
1.26993E3		3.70921E-3
1.34387E3		4.44334E-3
1.42319E3		3.85618E-3
1.49331E3		4.12223E-3
1.56565E3		4.30466E-3
1.63737E3		3.82970E-3
1.71005E3		3.86734E-3
1.78596E3		4.58283E-3
1.85862E3		5.06331E-3
1.92959E3		4.70090E-3
2.00189E3		4.40325E-3
2.07404E3		4.19472E-3

1.00000		1.00000

-499.232		1.78168E-3
-496.514		2.00281E-3
-475.398		1.61164E-3
-430.529		1.57447E-3
-376.693		1.97199E-3
-309.411		2.19612E-3
-240.570		2.64790E-3
-171.997		3.39515E-3
-96.7085		3.07402E-3
-21.2318		2.57878E-3
53.7119		2.23869E-3
141.271		3.10453E-3
209.827		3.34964E-3
280.209		3.72495E-3
351.261		2.75179E-3
423.928		3.28944E-3
511.131		3.74915E-3
578.392		3.67906E-3
647.526		3.73244E-3
720.622		3.60377E-3
793.222		3.25186E-3
867.314		3.37754E-3
936.457		3.82727E-3
1.00685E3		4.04173E-3
1.08158E3		4.46769E-3
1.15862E3		3.84996E-3
1.23263E3		3.92207E-3
1.31186E3		4.66348E-3
1.38225E3		4.73439E-3
1.45458E3		4.75213E-3
1.52497E3		4.13983E-3
1.59950E3		4.14931E-3
1.66544E3		4.64491E-3
1.73792E3		3.98063E-3
1.81344E3		4.56447E-3
1.88844E3		5.17117E-3
1.96145E3		4.75013E-3
2.04537E3		4.20038E-3

1.00000		1.00000

-574.246		1.73196E-3
-571.537		1.60819E-3
-551.336		2.29582E-3
-504.877		2.31069E-3
-448.114		2.42227E-3
-383.241		2.31705E-3
-313.943		1.67254E-3
-245.085		2.38194E-3
-172.554		1.75815E-3
-98.7989		2.80372E-3
-23.8848		2.88237E-3
67.0662		2.65519E-3
134.835		2.81855E-3
205.404		2.76392E-3
278.397		2.26562E-3
352.543		2.35785E-3
425.755		3.36344E-3
495.575		3.45204E-3
567.560		3.90346E-3
642.679		3.79855E-3
715.003		3.98483E-3
791.566		3.90465E-3
871.235		4.23276E-3
941.643		4.04340E-3
1.01294E3		4.17102E-3
1.08588E3		4.17259E-3
1.15876E3		3.57276E-3
1.22578E3		4.44498E-3
1.29986E3		4.15166E-3
1.37555E3		4.06709E-3
1.44929E3		4.22087E-3
1.52354E3		4.69980E-3
1.60632E3		4.25071E-3
1.66770E3		4.64644E-3
1.74098E3		4.67750E-3
1.81483E3		4.71044E-3
1.88764E3		5.15842E-3
1.96017E3		5.03932E-3

1.00000		1.00000

-647.375		1.22962E-3
-646.191		1.13500E-3
-640.062		993.052E-6
-609.394		716.586E-6
-555.972		1.17171E-3
-494.290		1.10234E-3
-425.989		1.05999E-3
-349.299		2.24454E-3
-277.259		1.88016E-3
-203.998		2.00782E-3
-129.799		2.29361E-3
11.0599		1.12610E-3
87.2159		1.28911E-3
164.010		1.44454E-3
236.774		2.65311E-3
312.450		3.30999E-3
392.699		2.33404E-3
464.275		2.79915E-3
536.109		2.37511E-3
608.933		2.29180E-3
681.591		2.92690E-3
754.265		3.60348E-3
822.939		4.26938E-3
894.778		3.41132E-3
971.077		2.92614E-3
1.04630E3		3.16190E-3
1.12988E3		3.92254E-3
1.19533E3		3.99050E-3
1.26615E3		4.52937E-3
1.33716E3		3.77491E-3
1.41208E3		3.46700E-3
1.48513E3		3.55270E-3
1.56321E3		4.52763E-3
1.63580E3		4.33749E-3
1.70652E3		4.98430E-3
1.77867E3		5.03727E-3
1.84877E3		4.03453E-3
1.91881E3		3.90266E-3

1.00000		1.00000

-722.163		603.866E-6
-721.133		494.916E-6
-716.477		613.283E-6
-681.020		977.892E-6
-629.884		526.381E-6
-568.457		378.608E-6
-501.107		574.057E-6
-436.017		1.34780E-3
-360.988		1.58993E-3
-284.159		1.73254E-3
-208.601		1.70422E-3
-135.518		1.47157E-3
-53.6441		2.30497E-3
18.7390		1.79872E-3
90.3562		2.30453E-3
164.973		2.63791E-3
238.786		1.95875E-3
318.695		1.95105E-3
389.246		1.60359E-3
462.047		1.69628E-3
533.011		2.39311E-3
674.017		2.36876E-3
748.533		2.70954E-3
823.361		2.68780E-3
897.201		3.07532E-3
970.727		3.98566E-3
1.05483E3		4.54924E-3
1.12056E3		4.80284E-3
1.19185E3		4.75064E-3
1.26226E3		4.69019E-3
1.33744E3		4.38744E-3
1.40933E3		4.43102E-3
1.47770E3		4.21083E-3
1.55237E3		4.72576E-3
1.62690E3		4.77087E-3
1.70016E3		4.11957E-3
1.78660E3		4.11899E-3
1.85229E3		4.20365E-3

1.00000		1.00000

-797.244		-372.704E-6
-795.760		-310.069E-6
-778.617		-525.177E-6
-735.040		-412.069E-6
-677.527		-568.039E-6
-612.464		-58.8611E-6
-533.123		380.912E-6
-464.968		632.333E-6
-391.982		828.747E-6
-318.464		395.266E-6
-244.487		37.3454E-6
-170.163		341.827E-6
-99.4889		309.826E-6
-27.3653		1.24942E-3
46.8648		801.586E-6
123.350		46.2234E-6
212.020		326.511E-6
279.066		826.612E-6
348.259		998.064E-6
420.716		1.92219E-3
493.980		2.34768E-3
567.396		2.31858E-3
637.610		2.40786E-3
709.188		2.00458E-3
794.333		3.30408E-3
864.839		3.89832E-3
936.657		4.13042E-3
1.00441E3		3.62174E-3
1.07726E3		3.67707E-3
1.15116E3		3.40108E-3
1.22330E3		4.42958E-3
1.29788E3		4.94215E-3
1.38062E3		5.08867E-3
1.44513E3		4.90307E-3
1.51763E3		4.29216E-3
1.59027E3		4.02482E-3
1.66346E3		4.06666E-3
1.73456E3		5.07989E-3

1.00000		1.00000

-872.049		-1.10731E-3
-870.689		-1.16667E-3
-852.711		-1.21843E-3
-808.072		-831.287E-6
-749.328		-589.289E-6
-683.997		-533.614E-6
-614.813		-798.046E-6
-545.804		-326.252E-6
-473.215		-877.848E-6
-397.284		-1.21841E-3
-322.099		-757.764E-6
-247.373		-596.268E-6
-167.030		-530.165E-6
-95.4624		-578.349E-6
-11.3099		610.371E-6
57.4906		780.198E-6
127.556		95.2077E-6
199.189		-36.3343E-6
270.540		-437.581E-6
344.681		-258.060E-6
417.515		455.715E-6
491.942		873.093E-6
565.183		1.27795E-3
634.986		1.77905E-3
707.243		2.00962E-3
783.076		1.80317E-3
856.813		2.68876E-3
940.706		3.51986E-3
1.00855E3		4.48176E-3
1.07992E3		4.69100E-3
1.14975E3		4.34870E-3
1.22248E3		4.62790E-3
1.29659E3		5.03618E-3
1.36739E3		4.43077E-3
1.43906E3		4.95349E-3
1.51331E3		5.32456E-3
1.58707E3		4.63282E-3
1.67295E3		4.22507E-3

1.00000		1.00000

-947.575		-2.05087E-3
-945.638		-1.93246E-3
-930.339		-1.77683E-3
-882.949		-1.72524E-3
-825.328		-1.49642E-3
-760.949		-1.77258E-3
-690.662		-2.03073E-3
-613.082		-981.076E-6
-540.551		-1.40694E-3
-467.264		-1.28522E-3
-392.960		-981.363E-6
-251.310		-1.53680E-3
-176.470		-1.95319E-3
-100.251		-1.91701E-3
-27.0461		-1.48660E-3
48.8314		-474.990E-6
130.099		-1.22504E-3
201.944		-487.154E-6
274.046		-207.928E-6
345.530		-300.062E-6
485.772		119.106E-6
559.682		1.02773E-3
634.008		1.45178E-3
708.941		793.402E-6
783.220		915.484E-6
862.133		2.23214E-3
932.649		2.71434E-3
1.00446E3		3.82067E-3
1.07684E3		4.26905E-3
1.14922E3		4.20365E-3
1.22197E3		3.64554E-3
1.29939E3		4.41609E-3
1.37089E3		4.45300E-3
1.44310E3		4.82980E-3
1.51811E3		4.97368E-3
1.58550E3		4.58358E-3
1.65740E3		4.33359E-3
1.70854E3		4.26505E-3

1.00000		1.00000

-1.02452E3		-2.48242E-3
-1.02024E3		-2.57803E-3
-1.00383E3		-2.83154E-3
-959.547		-2.84149E-3
-901.823		-2.73797E-3
-836.537		-2.89309E-3
-756.107		-2.79090E-3
-690.023		-2.71537E-3
-617.594		-2.29873E-3
-546.371		-2.77841E-3
-469.612		-1.79310E-3
-395.143		-2.32606E-3
-323.850		-2.67342E-3
-249.640		-2.43770E-3
-173.852		-1.82529E-3
-99.8493		-1.07339E-3
-15.7928		-981.672E-6
52.5690		-985.721E-6
124.163		-1.51357E-3
196.744		-1.53072E-3
268.023		-1.03807E-3
352.677		-378.063E-6
421.632		-449.129E-6
489.811		-874.165E-6
563.459		-806.431E-6
636.247		4.26561E-6
708.072		706.765E-6
776.738		1.39460E-3
852.481		2.23984E-3
926.259		2.35822E-3
999.798		2.84610E-3
1.08341E3		3.01759E-3
1.15056E3		3.39889E-3
1.22117E3		4.59186E-3
1.29399E3		4.76146E-3
1.36647E3		3.94336E-3
1.43854E3		3.63196E-3
1.50708E3		3.15106E-3

1.00000		1.00000

-1.09593E3		-2.85717E-3
-1.09534E3		-3.03453E-3
-1.09449E3		-3.05082E-3
-1.05882E3		-3.33947E-3
-1.00619E3		-3.16947E-3
-945.278		-2.52686E-3
-877.128		-2.32127E-3
-795.585		-2.82266E-3
-729.158		-3.10227E-3
-656.997		-3.31812E-3
-582.168		-3.10102E-3
-509.636		-3.14438E-3
-433.206		-2.50842E-3
-362.553		-2.05556E-3
-274.653		-1.65234E-3
-202.814		-2.28520E-3
-132.365		-2.25855E-3
-62.5925		-1.43361E-3
7.10187		-2.26614E-3
81.7281		-1.34921E-3
156.978		-1.16604E-3
228.511		-1.24347E-3
314.422		-1.50693E-3
382.932		-1.14804E-3
450.565		-523.579E-6
524.356		169.602E-6
598.996		-375.213E-6
671.573		-764.179E-6
741.386		63.5067E-6
812.876		272.871E-6
887.662		1.23172E-3
961.327		2.58881E-3
1.04841E3		3.29161E-3
1.11276E3		3.55677E-3
1.18098E3		3.94094E-3
1.25381E3		3.78685E-3
1.32763E3		4.18066E-3
1.40032E3		4.67328E-3

1.00000		1.00000

-1.17267E3		-3.47873E-3
-1.17021E3		-3.35725E-3
-1.15130E3		-3.39907E-3
-1.10346E3		-3.34281E-3
-1.04642E3		-3.14004E-3
-981.635		-2.96993E-3
-912.856		-2.79192E-3
-846.829		-3.77740E-3
-771.705		-3.72735E-3
-694.895		-3.59401E-3
-619.964		-3.71391E-3
-464.227		-3.75523E-3
-392.393		-2.85494E-3
-321.585		-3.23014E-3
-247.455		-3.60479E-3
-173.935		-2.80968E-3
-106.502		-2.17370E-3
-32.1845		-1.61840E-3
44.1569		-1.33601E-3
118.696		-1.66292E-3
192.805		-1.24931E-3
276.955		-1.95533E-3
342.158		-2.13641E-3
410.146		-2.26315E-3
485.926		-1.55139E-3
559.682		-1.52821E-3
632.295		-1.38780E-3
701.367		-1.43264E-3
775.297		-804.269E-6
847.002		498.410E-6
923.481		1.64576E-3
1.00770E3		2.53486E-3
1.07125E3		2.35001E-3
1.14231E3		2.20685E-3
1.21594E3		2.79673E-3
1.28886E3		4.15539E-3
1.37186E3		4.77765E-3
1.43896E3		4.71347E-3

1.00000		1.00000

-1.24560E3		-3.45898E-3
-1.24479E3		-3.61008E-3
-1.22424E3		-3.93910E-3
-1.18030E3		-4.16176E-3
-1.12351E3		-4.13053E-3
-1.05926E3		-3.92687E-3
-990.587		-3.68468E-3
-922.592		-4.35523E-3
-846.355		-3.62171E-3
-770.860		-2.92877E-3
-694.957		-2.95096E-3
-612.536		-2.52869E-3
-541.354		-3.17132E-3
-468.860		-3.05172E-3
-396.018		-2.69676E-3
-323.552		-2.67464E-3
-249.774		-3.02241E-3
-181.012		-2.86881E-3
-105.369		-3.21681E-3
-31.2062		-2.59590E-3
43.7605		-1.97163E-3
129.898		-2.21107E-3
197.192		-2.11581E-3
264.934		-2.43210E-3
337.334		-2.33987E-3
410.583		-1.67848E-3
493.234		-1.23488E-3
561.874		-551.815E-6
633.169		-305.179E-6
705.617		-595.574E-6
780.381		-694.757E-6
851.365		304.870E-6
921.372		107.197E-6
991.214		1.21338E-3
1.06707E3		2.28066E-3
1.14092E3		2.37061E-3
1.22754E3		2.97050E-3
1.29289E3		3.41213E-3

1.00000		1.00000

-1.32066E3		-3.79212E-3
-1.31973E3		-3.84950E-3
-1.31762E3		-3.86351E-3
-1.28209E3		-3.97438E-3
-1.23138E3		-4.30918E-3
-1.16986E3		-4.17779E-3
-1.10218E3		-3.44068E-3
-1.02030E3		-3.07560E-3
-954.220		-3.21182E-3
-881.661		-3.53117E-3
-809.153		-2.87331E-3
-733.721		-1.98630E-3
-657.739		-1.82109E-3
-586.093		-2.24354E-3
-511.810		-2.18551E-3
-436.490		-2.32692E-3
-362.172		-3.32220E-3
-277.619		-3.81380E-3
